Wavelength(nm)	Intensity(counts)
189.03	26.00
189.49	-15.00
189.96	-24.00
190.43	5.00
190.90	15.00
191.37	-28.00
191.84	5.00
192.31	-1.00
192.78	6.00
193.24	9.00
193.71	-5.00
194.18	9.00
194.65	16.00
195.12	-11.00
195.59	-20.00
196.06	2.00
196.52	9.00
196.99	-49.00
197.46	-2.00
197.93	-8.00
198.40	16.00
198.87	-19.00
199.34	-20.00
199.80	11.00
200.27	-13.00
200.74	-28.00
201.21	13.00
201.68	8.00
202.15	-12.00
202.61	-2.00
203.08	-29.00
203.55	17.00
204.02	-14.00
204.49	9.00
204.96	-14.00
205.42	27.00
205.89	-41.00
206.36	-36.00
206.83	11.00
207.30	21.00
207.76	-15.00
208.23	-25.00
208.70	14.00
209.17	11.00
209.64	-33.00
210.10	-39.00
210.57	5.00
211.04	4.00
211.51	-4.00
211.98	4.00
212.44	24.00
212.91	33.00
213.38	-24.00
213.85	-5.00
214.31	3.00
214.78	19.00
215.25	-32.00
215.72	-33.00
216.19	23.00
216.65	10.00
217.12	-10.00
217.59	10.00
218.06	3.00
218.52	-16.00
218.99	-20.00
219.46	-20.00
219.93	-2.00
220.39	13.00
220.86	-11.00
221.33	-24.00
221.80	6.00
222.26	-8.00
222.73	-42.00
223.20	2.00
223.66	24.00
224.13	-6.00
224.60	-19.00
225.07	-18.00
225.53	24.00
226.00	16.00
226.47	-28.00
226.94	13.00
227.40	9.00
227.87	-8.00
228.34	-21.00
228.80	-13.00
229.27	13.00
229.74	-46.00
230.21	-19.00
230.67	14.00
231.14	29.00
231.61	-17.00
232.07	-41.00
232.54	11.00
233.01	-15.00
233.47	-2.00
233.94	-16.00
234.41	-11.00
234.87	-3.00
235.34	-22.00
235.81	18.00
236.27	-15.00
236.74	8.00
237.21	1.00
237.67	13.00
238.14	7.00
238.61	17.00
239.07	-22.00
239.54	-12.00
240.01	2.00
240.47	-24.00
240.94	-31.00
241.41	-27.00
241.87	14.00
242.34	18.00
242.81	-30.00
243.27	-3.00
243.74	8.00
244.21	-25.00
244.67	-6.00
245.14	-18.00
245.60	4.00
246.07	23.00
246.54	-16.00
247.00	-6.00
247.47	15.00
247.94	-13.00
248.40	-32.00
248.87	-17.00
249.33	26.00
249.80	-28.00
250.27	-24.00
250.73	-22.00
251.20	-2.00
251.66	-33.00
252.13	-8.00
252.60	14.00
253.06	6.00
253.53	-20.00
253.99	-35.00
254.46	4.00
254.93	34.00
255.39	-15.00
255.86	4.00
256.32	9.00
256.79	23.00
257.26	-11.00
257.72	1.00
258.19	4.00
258.65	4.00
259.12	-24.00
259.58	-3.00
260.05	10.00
260.51	19.00
260.98	7.00
261.45	10.00
261.91	7.00
262.38	9.00
262.84	-24.00
263.31	-13.00
263.77	33.00
264.24	5.00
264.70	2.00
265.17	-2.00
265.63	7.00
266.10	-3.00
266.57	-2.00
267.03	2.00
267.50	33.00
267.96	20.00
268.43	-37.00
268.89	-1.00
269.36	32.00
269.82	-4.00
270.29	-27.00
270.75	-13.00
271.22	12.00
271.68	-1.00
272.15	8.00
272.61	10.00
273.08	-21.00
273.54	11.00
274.01	-20.00
274.47	-1.00
274.94	5.00
275.40	-35.00
275.87	-6.00
276.33	16.00
276.80	8.00
277.26	-17.00
277.73	-12.00
278.19	3.00
278.66	40.00
279.12	-28.00
279.59	-15.00
280.05	5.00
280.52	0.00
280.98	-20.00
281.44	-16.00
281.91	13.00
282.37	9.00
282.84	-17.00
283.30	-11.00
283.77	29.00
284.23	-4.00
284.70	13.00
285.16	-6.00
285.62	-3.00
286.09	-8.00
286.55	-7.00
287.02	-16.00
287.48	-5.00
287.95	0.00
288.41	-21.00
288.88	-3.00
289.34	21.00
289.80	-1.00
290.27	-6.00
290.73	-15.00
291.20	14.00
291.66	-20.00
292.12	20.00
292.59	9.00
293.05	12.00
293.52	-12.00
293.98	-10.00
294.44	-7.00
294.91	1.00
295.37	1.00
295.84	-21.00
296.30	-24.00
296.76	36.00
297.23	-16.00
297.69	-23.00
298.16	18.00
298.62	19.00
299.08	-20.00
299.55	9.00
300.01	13.00
300.47	-4.00
300.94	5.00
301.40	9.00
301.87	24.00
302.33	25.00
302.79	-37.00
303.26	-2.00
303.72	20.00
304.18	16.00
304.65	-27.00
305.11	7.00
305.57	2.00
306.04	-11.00
306.50	-20.00
306.96	-18.00
307.43	-2.00
307.89	8.00
308.35	-11.00
308.82	11.00
309.28	38.00
309.74	7.00
310.21	-8.00
310.67	0.00
311.13	19.00
311.60	-13.00
312.06	3.00
312.52	-9.00
312.99	27.00
313.45	-12.00
313.91	-1.00
314.38	18.00
314.84	4.00
315.30	16.00
315.76	-27.00
316.23	-3.00
316.69	-8.00
317.15	-9.00
317.62	-16.00
318.08	9.00
318.54	-6.00
319.00	-15.00
319.47	-28.00
319.93	-6.00
320.39	-3.00
320.86	3.00
321.32	5.00
321.78	-3.00
322.24	-1.00
322.71	-19.00
323.17	-19.00
323.63	-13.00
324.09	-5.00
324.56	-40.00
325.02	-29.00
325.48	-8.00
325.94	33.00
326.41	-4.00
326.87	23.00
327.33	11.00
327.79	25.00
328.26	-12.00
328.72	-22.00
329.18	34.00
329.64	20.00
330.11	-30.00
330.57	5.00
331.03	28.00
331.49	-4.00
331.95	-15.00
332.42	-19.00
332.88	-5.00
333.34	-19.00
333.80	-31.00
334.27	18.00
334.73	17.00
335.19	3.00
335.65	-10.00
336.11	2.00
336.58	0.00
337.04	-13.00
337.50	-7.00
337.96	-9.00
338.42	15.00
338.88	-1.00
339.35	16.00
339.81	5.00
340.27	-15.00
340.73	-1.00
341.19	-8.00
341.66	13.00
342.12	9.00
342.58	-8.00
343.04	-3.00
343.50	10.00
343.96	4.00
344.43	-3.00
344.89	-11.00
345.35	22.00
345.81	6.00
346.27	-17.00
346.73	13.00
347.19	27.00
347.66	13.00
348.12	14.00
348.58	-14.00
349.04	5.00
349.50	-8.00
349.96	-21.00
350.42	-7.00
350.88	8.00
351.35	-13.00
351.81	-22.00
352.27	-9.00
352.73	19.00
353.19	7.00
353.65	-5.00
354.11	-2.00
354.57	-13.00
355.04	-17.00
355.50	-24.00
355.96	13.00
356.42	-1.00
356.88	-22.00
357.34	-45.00
357.80	5.00
358.26	28.00
358.72	-2.00
359.18	-29.00
359.64	-5.00
360.11	0.00
360.57	2.00
361.03	-10.00
361.49	14.00
361.95	8.00
362.41	-23.00
362.87	-26.00
363.33	0.00
363.79	6.00
364.25	-33.00
364.71	-16.00
365.17	-6.00
365.63	2.00
366.09	-40.00
366.55	-31.00
367.01	-14.00
367.48	7.00
367.94	-31.00
368.40	-23.00
368.86	19.00
369.32	10.00
369.78	-3.00
370.24	-7.00
370.70	5.00
371.16	-25.00
371.62	-10.00
372.08	7.00
372.54	14.00
373.00	-14.00
373.46	-1.00
373.92	-33.00
374.38	17.00
374.84	8.00
375.30	-8.00
375.76	-26.00
376.22	44.00
376.68	12.00
377.14	-4.00
377.60	-5.00
378.06	7.00
378.52	-25.00
378.98	-57.00
379.44	-23.00
379.90	14.00
380.36	-46.00
380.82	-4.00
381.28	14.00
381.74	-2.00
382.20	-19.00
382.66	-9.00
383.12	-1.00
383.58	28.00
384.04	-23.00
384.50	-18.00
384.96	22.00
385.41	-10.00
385.87	0.00
386.33	7.00
386.79	-10.00
387.25	-2.00
387.71	-7.00
388.17	-27.00
388.63	17.00
389.09	-7.00
389.55	-14.00
390.01	-3.00
390.47	26.00
390.93	-20.00
391.39	-15.00
391.85	7.00
392.31	16.00
392.76	-13.00
393.22	-20.00
393.68	0.00
394.14	-7.00
394.60	-9.00
395.06	-23.00
395.52	-5.00
395.98	24.00
396.44	-1.00
396.90	-40.00
397.36	36.00
397.81	21.00
398.27	-6.00
398.73	10.00
399.19	24.00
399.65	22.00
400.11	0.00
400.57	-11.00
401.03	-20.00
401.48	14.00
401.94	-12.00
402.40	7.00
402.86	15.00
403.32	27.00
403.78	-6.00
404.24	-11.00
404.70	1.00
405.15	16.00
405.61	-23.00
406.07	-3.00
406.53	10.00
406.99	-5.00
407.45	-26.00
407.90	3.00
408.36	21.00
408.82	-36.00
409.28	-36.00
409.74	-4.00
410.20	-17.00
410.65	-1.00
411.11	20.00
411.57	-8.00
412.03	13.00
412.49	1.00
412.95	1.00
413.40	9.00
413.86	-15.00
414.32	-17.00
414.78	-8.00
415.24	-5.00
415.69	-7.00
416.15	-28.00
416.61	-3.00
417.07	-2.00
417.53	7.00
417.98	-6.00
418.44	-4.00
418.90	1.00
419.36	4.00
419.82	-11.00
420.27	-3.00
420.73	-6.00
421.19	10.00
421.65	-33.00
422.10	-9.00
422.56	-23.00
423.02	-3.00
423.48	-12.00
423.93	-6.00
424.39	21.00
424.85	27.00
425.31	2.00
425.76	-6.00
426.22	-12.00
426.68	18.00
427.14	-27.00
427.59	5.00
428.05	19.00
428.51	-4.00
428.97	-5.00
429.42	-3.00
429.88	-2.00
430.34	-5.00
430.80	-14.00
431.25	2.00
431.71	8.00
432.17	-6.00
432.62	-13.00
433.08	9.00
433.54	33.00
434.00	-1.00
434.45	-27.00
434.91	-2.00
435.37	3.00
435.82	11.00
436.28	-26.00
436.74	-22.00
437.20	35.00
437.65	4.00
438.11	4.00
438.57	14.00
439.02	4.00
439.48	-9.00
439.94	-29.00
440.39	8.00
440.85	11.00
441.31	-10.00
441.76	6.00
442.22	2.00
442.68	-8.00
443.13	9.00
443.59	-33.00
444.05	-16.00
444.50	22.00
444.96	12.00
445.42	-5.00
445.87	3.00
446.33	-5.00
446.79	-19.00
447.24	-21.00
447.70	-28.00
448.15	-1.00
448.61	-46.00
449.07	-11.00
449.52	-13.00
449.98	7.00
450.44	7.00
450.89	-16.00
451.35	2.00
451.80	0.00
452.26	-20.00
452.72	-38.00
453.17	12.00
453.63	17.00
454.08	-5.00
454.54	-15.00
455.00	3.00
455.45	-9.00
455.91	-39.00
456.36	-18.00
456.82	18.00
457.28	6.00
457.73	-18.00
458.19	19.00
458.64	25.00
459.10	7.00
459.56	-33.00
460.01	-29.00
460.47	-17.00
460.92	-33.00
461.38	-9.00
461.83	-17.00
462.29	15.00
462.75	4.00
463.20	10.00
463.66	-1.00
464.11	-5.00
464.57	-20.00
465.02	-8.00
465.48	-19.00
465.93	-12.00
466.39	-15.00
466.84	-20.00
467.30	9.00
467.76	-22.00
468.21	-21.00
468.67	-31.00
469.12	-19.00
469.58	-19.00
470.03	-8.00
470.49	-15.00
470.94	13.00
471.40	18.00
471.85	-9.00
472.31	-3.00
472.76	-9.00
473.22	-10.00
473.67	-21.00
474.13	-25.00
474.58	15.00
475.04	-11.00
475.49	-3.00
475.95	7.00
476.40	25.00
476.86	-14.00
477.31	-27.00
477.77	7.00
478.22	-16.00
478.68	-21.00
479.13	-9.00
479.59	10.00
480.04	10.00
480.50	-16.00
480.95	7.00
481.41	-19.00
481.86	17.00
482.31	-43.00
482.77	14.00
483.22	-12.00
483.68	-15.00
484.13	-21.00
484.59	-48.00
485.04	-20.00
485.50	9.00
485.95	-10.00
486.40	4.00
486.86	-41.00
487.31	-21.00
487.77	-3.00
488.22	-7.00
488.68	-7.00
489.13	-7.00
489.58	12.00
490.04	-13.00
490.49	-10.00
490.95	9.00
491.40	-31.00
491.86	-35.00
492.31	-14.00
492.76	-7.00
493.22	14.00
493.67	4.00
494.13	-11.00
494.58	-19.00
495.03	-15.00
495.49	-28.00
495.94	18.00
496.39	-7.00
496.85	-10.00
497.30	-4.00
497.76	17.00
498.21	18.00
498.66	24.00
499.12	-17.00
499.57	3.00
500.02	-16.00
500.48	-44.00
500.93	-12.00
501.39	-2.00
501.84	-6.00
502.29	-10.00
502.75	4.00
503.20	8.00
503.65	8.00
504.11	16.00
504.56	-34.00
505.01	17.00
505.47	-3.00
505.92	-6.00
506.37	19.00
506.83	8.00
507.28	6.00
507.73	5.00
508.19	-10.00
508.64	0.00
509.09	-26.00
509.55	-31.00
510.00	-18.00
510.45	-23.00
510.90	-10.00
511.36	-7.00
511.81	24.00
512.26	27.00
512.72	-28.00
513.17	-17.00
513.62	34.00
514.08	6.00
514.53	8.00
514.98	-13.00
515.43	7.00
515.89	-29.00
516.34	-5.00
516.79	5.00
517.25	-7.00
517.70	-11.00
518.15	-9.00
518.60	-16.00
519.06	-2.00
519.51	-8.00
519.96	15.00
520.41	5.00
520.87	-6.00
521.32	-12.00
521.77	-16.00
522.22	7.00
522.68	9.00
523.13	11.00
523.58	35.00
524.03	-18.00
524.49	-15.00
524.94	-2.00
525.39	-27.00
525.84	-10.00
526.29	6.00
526.75	-3.00
527.20	-17.00
527.65	5.00
528.10	-9.00
528.56	-28.00
529.01	-41.00
529.46	5.00
529.91	21.00
530.36	-16.00
530.82	3.00
531.27	-5.00
531.72	14.00
532.17	-18.00
532.62	-13.00
533.08	-27.00
533.53	-5.00
533.98	-29.00
534.43	-20.00
534.88	5.00
535.33	-3.00
535.79	4.00
536.24	-3.00
536.69	9.00
537.14	-21.00
537.59	13.00
538.04	-28.00
538.50	15.00
538.95	0.00
539.40	-3.00
539.85	-24.00
540.30	-19.00
540.75	-2.00
541.21	-5.00
541.66	11.00
542.11	-18.00
542.56	-36.00
543.01	-16.00
543.46	-7.00
543.91	3.00
544.36	-17.00
544.82	-11.00
545.27	-12.00
545.72	-10.00
546.17	-22.00
546.62	35.00
547.07	8.00
547.52	-7.00
547.97	-15.00
548.43	-32.00
548.88	13.00
549.33	0.00
549.78	-27.00
550.23	-45.00
550.68	-8.00
551.13	13.00
551.58	-9.00
552.03	-14.00
552.48	-1.00
552.93	-28.00
553.39	5.00
553.84	22.00
554.29	-5.00
554.74	-21.00
555.19	-30.00
555.64	9.00
556.09	-11.00
556.54	0.00
556.99	-24.00
557.44	-15.00
557.89	20.00
558.34	25.00
558.79	8.00
559.24	31.00
559.69	-6.00
560.14	-23.00
560.59	-26.00
561.04	19.00
561.50	10.00
561.95	-13.00
562.40	-41.00
562.85	7.00
563.30	5.00
563.75	1.00
564.20	-16.00
564.65	-3.00
565.10	9.00
565.55	-27.00
566.00	-27.00
566.45	-23.00
566.90	-29.00
567.35	-21.00
567.80	-13.00
568.25	-6.00
568.70	-22.00
569.15	-1.00
569.60	-16.00
570.05	1.00
570.50	-6.00
570.95	-12.00
571.40	-28.00
571.85	-11.00
572.30	6.00
572.75	-6.00
573.20	8.00
573.65	-6.00
574.09	3.00
574.54	1.00
574.99	-26.00
575.44	-11.00
575.89	-20.00
576.34	-24.00
576.79	5.00
577.24	0.00
577.69	17.00
578.14	-20.00
578.59	-14.00
579.04	26.00
579.49	-17.00
579.94	-35.00
580.39	20.00
580.84	-26.00
581.29	-44.00
581.74	-42.00
582.18	-37.00
582.63	-26.00
583.08	-27.00
583.53	-31.00
583.98	-59.00
584.43	-68.00
584.88	-71.00
585.33	-30.00
585.78	-33.00
586.23	-16.00
586.68	-133.00
587.12	-109.00
587.57	-58.00
588.02	-14.00
588.47	-31.00
588.92	-28.00
589.37	-23.00
589.82	-34.00
590.27	-19.00
590.71	-26.00
591.16	-11.00
591.61	3.00
592.06	-37.00
592.51	-30.00
592.96	-18.00
593.41	-45.00
593.86	-92.00
594.30	-33.00
594.75	-4.00
595.20	-27.00
595.65	-21.00
596.10	-12.00
596.55	-2.00
596.99	-34.00
597.44	-29.00
597.89	-1.00
598.34	-4.00
598.79	1.00
599.24	-10.00
599.68	-5.00
600.13	-18.00
600.58	-24.00
601.03	-17.00
601.48	-1.00
601.93	3.00
602.37	-51.00
602.82	3.00
603.27	-1.00
603.72	-39.00
604.17	16.00
604.61	-8.00
605.06	10.00
605.51	16.00
605.96	-1.00
606.40	-43.00
606.85	-56.00
607.30	-30.00
607.75	-46.00
608.20	-52.00
608.64	-109.00
609.09	-139.00
609.54	-101.00
609.99	-63.00
610.43	-87.00
610.88	-101.00
611.33	-96.00
611.78	-59.00
612.22	-31.00
612.67	-43.00
613.12	-92.00
613.57	-159.00
614.01	-158.00
614.46	-34.00
614.91	-40.00
615.36	-33.00
615.80	-33.00
616.25	-19.00
616.70	-24.00
617.15	-24.00
617.59	-17.00
618.04	18.00
618.49	15.00
618.93	12.00
619.38	-38.00
619.83	1.00
620.28	-15.00
620.72	-25.00
621.17	-3.00
621.62	-20.00
622.06	16.00
622.51	34.00
622.96	6.00
623.40	-30.00
623.85	-6.00
624.30	-16.00
624.75	26.00
625.19	1.00
625.64	-15.00
626.09	-48.00
626.53	-8.00
626.98	32.00
627.43	-4.00
627.87	36.00
628.32	75.00
628.77	60.00
629.21	49.00
629.66	104.00
630.11	166.00
630.55	343.00
631.00	1087.00
631.45	4404.00
631.89	10384.00
632.34	14227.00
632.78	9509.00
633.23	2477.00
633.68	548.00
634.12	177.00
634.57	66.00
635.02	88.00
635.46	52.00
635.91	41.00
636.35	30.00
636.80	-7.00
637.25	-38.00
637.69	-132.00
638.14	-89.00
638.58	-32.00
639.03	-140.00
639.48	-411.00
639.92	-405.00
640.37	-125.00
640.81	-4.00
641.26	10.00
641.71	31.00
642.15	10.00
642.60	-14.00
643.04	-5.00
643.49	23.00
643.94	11.00
644.38	-3.00
644.83	17.00
645.27	14.00
645.72	21.00
646.16	2.00
646.61	9.00
647.06	19.00
647.50	30.00
647.95	17.00
648.39	22.00
648.84	1.00
649.28	-7.00
649.73	-85.00
650.17	-177.00
650.62	-75.00
651.06	-6.00
651.51	24.00
651.95	18.00
652.40	6.00
652.85	-29.00
653.29	-22.00
653.74	3.00
654.18	36.00
654.63	23.00
655.07	5.00
655.52	-12.00
655.96	-7.00
656.41	-26.00
656.85	5.00
657.30	-24.00
657.74	6.00
658.19	-25.00
658.63	-55.00
659.08	-84.00
659.52	-104.00
659.97	-56.00
660.41	-1.00
660.86	9.00
661.30	23.00
661.74	-20.00
662.19	11.00
662.63	17.00
663.08	-15.00
663.52	9.00
663.97	-22.00
664.41	-22.00
664.86	-22.00
665.30	-15.00
665.75	-10.00
666.19	-24.00
666.63	-53.00
667.08	-196.00
667.52	-231.00
667.97	-162.00
668.41	-45.00
668.86	-1.00
669.30	-3.00
669.75	-7.00
670.19	-27.00
670.63	-43.00
671.08	-81.00
671.52	-80.00
671.97	-14.00
672.41	-8.00
672.85	-19.00
673.30	-30.00
673.74	-6.00
674.19	-48.00
674.63	17.00
675.07	14.00
675.52	9.00
675.96	-17.00
676.41	2.00
676.85	-11.00
677.29	-12.00
677.74	-6.00
678.18	14.00
678.63	-11.00
679.07	-17.00
679.51	-21.00
679.96	-6.00
680.40	-7.00
680.84	-35.00
681.29	-20.00
681.73	-5.00
682.17	-8.00
682.62	-28.00
683.06	-13.00
683.50	4.00
683.95	-1.00
684.39	-20.00
684.84	-21.00
685.28	-6.00
685.72	13.00
686.17	18.00
686.61	10.00
687.05	-15.00
687.49	26.00
687.94	-19.00
688.38	-14.00
688.82	-3.00
689.27	8.00
689.71	21.00
690.15	34.00
690.60	-19.00
691.04	19.00
691.48	10.00
691.93	-71.00
692.37	-57.00
692.81	-74.00
693.25	-40.00
693.70	-9.00
694.14	-6.00
694.58	-15.00
695.03	8.00
695.47	-30.00
695.91	-11.00
696.35	-25.00
696.80	-29.00
697.24	5.00
697.68	6.00
698.13	20.00
698.57	12.00
699.01	3.00
699.45	-1.00
699.90	0.00
700.34	-14.00
700.78	-13.00
701.22	3.00
701.67	-20.00
702.11	-42.00
702.55	-112.00
702.99	-149.00
703.43	-116.00
703.88	-35.00
704.32	-18.00
704.76	17.00
705.20	-15.00
705.65	-47.00
706.09	-94.00
706.53	-55.00
706.97	-41.00
707.41	-5.00
707.86	3.00
708.30	-30.00
708.74	-17.00
709.18	-7.00
709.62	-29.00
710.07	-15.00
710.51	-1.00
710.95	-29.00
711.39	28.00
711.83	-1.00
712.28	-8.00
712.72	-5.00
713.16	20.00
713.60	10.00
714.04	-20.00
714.48	-12.00
714.93	-15.00
715.37	-18.00
715.81	-1.00
716.25	-8.00
716.69	-6.00
717.13	-50.00
717.57	-26.00
718.02	9.00
718.46	-19.00
718.90	-19.00
719.34	-25.00
719.78	-12.00
720.22	-2.00
720.66	-9.00
721.11	-39.00
721.55	-15.00
721.99	5.00
722.43	-16.00
722.87	22.00
723.31	-10.00
723.75	-40.00
724.19	-50.00
724.63	-74.00
725.08	-43.00
725.52	15.00
725.96	-21.00
726.40	-7.00
726.84	8.00
727.28	-25.00
727.72	-48.00
728.16	-3.00
728.60	-1.00
729.04	11.00
729.48	8.00
729.93	-12.00
730.37	-28.00
730.81	-2.00
731.25	-22.00
731.69	-10.00
732.13	4.00
732.57	2.00
733.01	-13.00
733.45	13.00
733.89	4.00
734.33	-12.00
734.77	-5.00
735.21	16.00
735.65	10.00
736.09	-20.00
736.53	-11.00
736.97	-18.00
737.41	-14.00
737.85	1.00
738.29	0.00
738.73	-14.00
739.18	-3.00
739.62	7.00
740.06	-23.00
740.50	-24.00
740.94	-13.00
741.38	-4.00
741.82	2.00
742.26	-1.00
742.70	0.00
743.14	-44.00
743.58	-18.00
744.02	-11.00
744.46	16.00
744.90	-4.00
745.34	-19.00
745.77	-19.00
746.21	8.00
746.65	-34.00
747.09	6.00
747.53	-5.00
747.97	-13.00
748.41	-21.00
748.85	-1.00
749.29	-14.00
749.73	-21.00
750.17	-3.00
750.61	-14.00
751.05	-6.00
751.49	-4.00
751.93	3.00
752.37	-17.00
752.81	4.00
753.25	10.00
753.69	4.00
754.13	-26.00
754.57	-4.00
755.00	-4.00
755.44	2.00
755.88	-3.00
756.32	-5.00
756.76	-7.00
757.20	-13.00
757.64	7.00
758.08	21.00
758.52	-11.00
758.96	13.00
759.40	-6.00
759.83	33.00
760.27	19.00
760.71	12.00
761.15	-12.00
761.59	-3.00
762.03	5.00
762.47	14.00
762.91	-36.00
763.35	-3.00
763.78	10.00
764.22	-7.00
764.66	-11.00
765.10	32.00
765.54	-24.00
765.98	1.00
766.42	36.00
766.85	-16.00
767.29	12.00
767.73	-8.00
768.17	5.00
768.61	-19.00
769.05	-2.00
769.48	23.00
769.92	1.00
770.36	2.00
770.80	-16.00
771.24	18.00
771.68	0.00
772.11	-40.00
772.55	2.00
772.99	-15.00
773.43	13.00
773.87	7.00
774.31	3.00
774.74	-4.00
775.18	19.00
775.62	22.00
776.06	-15.00
776.50	12.00
776.93	24.00
777.37	-4.00
777.81	38.00
778.25	-4.00
778.68	11.00
779.12	-12.00
779.56	8.00
780.00	-7.00
780.44	8.00
780.87	6.00
781.31	-25.00
781.75	-6.00
782.19	-35.00
782.62	1.00
783.06	1.00
783.50	-7.00
783.94	-6.00
784.37	2.00
784.81	14.00
785.25	-11.00
785.69	2.00
786.12	-12.00
786.56	-11.00
787.00	16.00
787.44	4.00
787.87	11.00
788.31	22.00
788.75	-3.00
789.18	-11.00
789.62	-18.00
790.06	8.00
790.50	-22.00
790.93	6.00
791.37	-22.00
791.81	14.00
792.24	1.00
792.68	3.00
793.12	5.00
793.55	-19.00
793.99	20.00
794.43	-7.00
794.86	-3.00
795.30	9.00
795.74	-7.00
796.18	11.00
796.61	10.00
797.05	-27.00
797.49	17.00
797.92	9.00
798.36	0.00
798.80	-11.00
799.23	11.00
799.67	-4.00
800.10	-15.00
800.54	-10.00
800.98	18.00
801.41	14.00
801.85	-1.00
802.29	16.00
802.72	-32.00
803.16	0.00
803.60	-7.00
804.03	17.00
804.47	-4.00
804.90	-49.00
805.34	1.00
805.78	0.00
806.21	11.00
806.65	-30.00
807.09	-13.00
807.52	-17.00
807.96	16.00
808.39	4.00
808.83	23.00
809.27	-1.00
809.70	-8.00
810.14	8.00
810.57	-29.00
811.01	7.00
811.44	-14.00
811.88	30.00
812.32	21.00
812.75	-11.00
813.19	-7.00
813.62	-1.00
814.06	-26.00
814.49	-19.00
814.93	-21.00
815.37	25.00
815.80	7.00
816.24	6.00
816.67	-31.00
817.11	-25.00
817.54	-20.00
817.98	13.00
818.41	-6.00
818.85	38.00
819.28	-3.00
819.72	-7.00
820.15	5.00
820.59	11.00
821.03	-1.00
821.46	14.00
821.90	6.00
822.33	28.00
822.77	18.00
823.20	31.00
823.64	8.00
824.07	8.00
824.51	-23.00
824.94	21.00
825.38	-16.00
825.81	-4.00
826.25	-25.00
826.68	22.00
827.12	-19.00
827.55	6.00
827.99	30.00
828.42	12.00
828.85	1.00
829.29	-15.00
829.72	-7.00
830.16	-17.00
830.59	-14.00
831.03	5.00
831.46	-9.00
831.90	1.00
832.33	5.00
832.77	10.00
833.20	-3.00
833.63	7.00
834.07	-13.00
834.50	26.00
834.94	-17.00
835.37	0.00
835.81	-19.00
836.24	13.00
836.67	-19.00
837.11	-21.00
837.54	-21.00
837.98	-32.00
838.41	-1.00
838.85	-4.00
839.28	3.00
839.71	9.00
840.15	-21.00
840.58	-16.00
841.02	-8.00
841.45	-6.00
841.88	-7.00
842.32	-14.00
842.75	-28.00
843.19	-10.00
843.62	-31.00
844.05	-12.00
844.49	16.00
844.92	19.00
845.35	-7.00
845.79	-9.00
846.22	-13.00
846.65	-5.00
847.09	-9.00
847.52	-12.00
847.96	-17.00
848.39	-20.00
848.82	16.00
849.26	-18.00
849.69	-12.00
850.12	-1.00
850.56	-26.00
850.99	-12.00
851.42	12.00
851.86	2.00
852.29	18.00
852.72	-23.00
853.16	-12.00
853.59	-2.00
854.02	-5.00
854.46	-17.00
854.89	8.00
855.32	-2.00
855.75	9.00
856.19	6.00
856.62	-19.00
857.05	9.00
857.49	-2.00
857.92	12.00
858.35	-20.00
858.78	-4.00
859.22	-5.00
859.65	5.00
860.08	14.00
860.52	16.00
860.95	13.00
861.38	10.00
861.81	-2.00
862.25	-24.00
862.68	36.00
863.11	-2.00
863.54	1.00
863.98	40.00
864.41	-6.00
864.84	-1.00
865.27	11.00
865.71	-15.00
866.14	-27.00
866.57	-31.00
867.00	14.00
867.44	14.00
867.87	-1.00
868.30	-8.00
868.73	18.00
869.16	-12.00
869.60	7.00
870.03	12.00
870.46	0.00
870.89	-19.00
871.33	-23.00
871.76	4.00
872.19	-12.00
872.62	-14.00
873.05	-47.00
873.49	-15.00
873.92	-11.00
874.35	-12.00
874.78	-9.00
875.21	-7.00
875.64	18.00
876.08	2.00
876.51	2.00
876.94	-12.00
877.37	-25.00
877.80	-7.00
878.23	5.00
878.67	8.00
879.10	4.00
879.53	-3.00
879.96	-5.00
880.39	3.00
880.82	-20.00
881.25	-17.00
881.69	-20.00
882.12	2.00
882.55	-23.00
882.98	-17.00
883.41	-8.00
883.84	-7.00
884.27	-17.00
884.70	-21.00
885.14	19.00
885.57	-14.00
886.00	-6.00
886.43	-9.00
886.86	20.00
887.29	-10.00
887.72	10.00
888.15	-9.00
888.58	-25.00
889.02	10.00
889.45	-10.00
889.88	2.00
890.31	-11.00
890.74	5.00
891.17	-7.00
891.60	11.00
892.03	-6.00
892.46	23.00
892.89	7.00
893.32	-40.00
893.75	-10.00
894.18	-13.00
894.61	7.00
895.05	8.00
895.48	38.00
895.91	16.00
896.34	6.00
896.77	-4.00
897.20	-10.00
897.63	-14.00
898.06	19.00
898.49	3.00
898.92	11.00
899.35	12.00
899.78	1.00
900.21	-27.00
900.64	-37.00
901.07	-8.00
901.50	14.00
901.93	7.00
902.36	-3.00
902.79	-5.00
903.22	-12.00
903.65	2.00
904.08	0.00
904.51	-4.00
904.94	8.00
905.37	5.00
905.80	-12.00
906.23	4.00
906.66	-19.00
907.09	-8.00
907.52	-9.00
907.95	-26.00
908.38	-6.00
908.81	-8.00
909.24	18.00
909.67	-11.00
910.10	-18.00
910.53	7.00
910.96	-13.00
911.38	-4.00
911.81	12.00
912.24	-6.00
912.67	-13.00
913.10	22.00
913.53	14.00
913.96	-15.00
914.39	-17.00
914.82	1.00
915.25	-29.00
915.68	3.00
916.11	-14.00
916.54	2.00
916.97	8.00
917.39	-8.00
917.82	-15.00
918.25	-15.00
918.68	26.00
919.11	20.00
919.54	13.00
919.97	-14.00
920.40	-34.00
920.83	-25.00
921.25	-3.00
921.68	0.00
922.11	-3.00
922.54	-28.00
922.97	20.00
923.40	-17.00
923.83	-23.00
924.26	2.00
924.68	-25.00
925.11	-2.00
925.54	17.00
925.97	-4.00
926.40	18.00
926.83	-5.00
927.26	9.00
927.68	-22.00
928.11	21.00
928.54	20.00
928.97	12.00
929.40	13.00
929.83	-4.00
930.25	1.00
930.68	6.00
931.11	5.00
931.54	14.00
931.97	-16.00
932.39	-26.00
932.82	0.00
933.25	-15.00
933.68	1.00
934.11	-1.00
934.53	-6.00
934.96	-1.00
935.39	-4.00
935.82	1.00
936.25	20.00
936.67	-10.00
937.10	-10.00
937.53	15.00
937.96	-5.00
938.38	-13.00
938.81	21.00
939.24	9.00
939.67	-28.00
940.10	7.00
940.52	-7.00
940.95	16.00
941.38	-3.00
941.81	-6.00
942.23	2.00
942.66	-4.00
943.09	4.00
943.51	-16.00
943.94	2.00
944.37	18.00
944.80	0.00
945.22	-1.00
945.65	-16.00
946.08	-7.00
946.51	-19.00
946.93	-14.00
947.36	17.00
947.79	19.00
948.21	-22.00
948.64	23.00
949.07	-14.00
949.49	16.00
949.92	2.00
950.35	9.00
950.78	-14.00
951.20	-1.00
951.63	2.00
952.06	-12.00
952.48	5.00
952.91	19.00
953.34	-14.00
953.76	-28.00
954.19	-7.00
954.62	-6.00
955.04	-13.00
955.47	-2.00
955.90	-15.00
956.32	-23.00
956.75	-1.00
957.18	6.00
957.60	19.00
958.03	2.00
958.45	-18.00
958.88	3.00
959.31	-3.00
959.73	-14.00
960.16	9.00
960.59	-13.00
961.01	18.00
961.44	18.00
961.86	-11.00
962.29	1.00
962.72	-7.00
963.14	11.00
963.57	21.00
963.99	-6.00
964.42	-11.00
964.85	-10.00
965.27	-8.00
965.70	-31.00
966.12	0.00
966.55	-6.00
966.98	-5.00
967.40	-29.00
967.83	-7.00
968.25	-9.00
968.68	22.00
969.10	-15.00
969.53	-24.00
969.96	-5.00
970.38	6.00
970.81	-16.00
971.23	-17.00
971.66	-8.00
972.08	19.00
972.51	16.00
972.93	8.00
973.36	9.00
973.78	6.00
974.21	2.00
974.64	11.00
975.06	6.00
975.49	13.00
975.91	-8.00
976.34	-2.00
976.76	14.00
977.19	18.00
977.61	21.00
978.04	-18.00
978.46	-32.00
978.89	17.00
979.31	26.00
979.74	-27.00
980.16	-2.00
980.59	8.00
981.01	7.00
981.44	-15.00
981.86	19.00
982.29	-8.00
982.71	-4.00
983.14	-19.00
983.56	12.00
983.98	-42.00
984.41	6.00
984.83	-16.00
985.26	6.00
985.68	-6.00
986.11	-10.00
986.53	-4.00
986.96	-5.00
987.38	16.00
987.81	2.00
988.23	2.00
988.65	9.00
989.08	-28.00
989.50	-4.00
989.93	21.00
990.35	-5.00
990.78	-4.00
991.20	1.00
991.62	10.00
992.05	-9.00
992.47	-9.00
992.90	-8.00
993.32	-4.00
993.74	5.00
994.17	11.00
994.59	2.00
995.02	-17.00
995.44	-34.00
995.86	13.00
996.29	-19.00
996.71	-15.00
997.13	-9.00
997.56	1.00
997.98	2.00
998.41	-20.00
998.83	-8.00
999.25	-3.00
999.68	-1.00
1000.10	19.00
1000.52	13.00
1000.95	9.00
1001.37	8.00
1001.79	40.00
1002.22	28.00
1002.64	4.00
1003.06	-8.00
1003.49	-9.00
1003.91	15.00
1004.33	20.00
1004.76	-14.00
1005.18	-10.00
1005.60	-3.00
1006.03	-13.00
1006.45	-11.00
1006.87	-8.00
1007.30	-11.00
1007.72	-8.00
1008.14	-38.00
1008.57	-15.00
1008.99	-4.00
1009.41	12.00
1009.83	-12.00
1010.26	6.00
1010.68	-3.00
1011.10	12.00
1011.53	24.00
1011.95	-6.00
1012.37	-26.00
1012.79	-41.00
1013.22	11.00
1013.64	7.00
1014.06	-10.00
1014.48	-19.00
1014.91	12.00
1015.33	-11.00
1015.75	18.00
1016.17	9.00
1016.60	15.00
1017.02	18.00
1017.44	-21.00
1017.86	10.00
1018.29	26.00
1018.71	-4.00
1019.13	2.00
1019.55	-18.00
1019.98	1.00
1020.40	4.00
1020.82	-37.00
1021.24	-13.00
1021.66	-12.00
1022.09	-2.00
1022.51	7.00
1022.93	-33.00
1023.35	26.00
1023.77	-25.00
1024.20	8.00
1024.62	12.00
1025.04	-13.00
1025.46	-10.00
1025.88	-17.00
1026.31	-14.00
1026.73	2.00
1027.15	-9.00
1027.57	-26.00
1027.99	5.00
1028.41	-11.00
1028.84	-11.00
1029.26	-25.00
1029.68	-16.00
1030.10	4.00
1030.52	3.00
1030.94	1.00
1031.36	-13.00
1031.79	26.00
1032.21	4.00
1032.63	15.00
1033.05	-26.00
1033.47	14.00
1033.89	0.00
1034.31	2.00
1034.73	27.00
1035.16	-5.00
1035.58	22.00
1036.00	-2.00
1036.42	24.00
1036.84	-4.00
1037.26	-21.00
1037.68	-4.00
1038.10	3.00
1038.52	-2.00
1038.95	-3.00
1039.37	-19.00
1039.79	11.00
1040.21	15.00
1040.63	-12.00
1041.05	14.00
1041.47	11.00
1041.89	0.00
1042.31	1.00
1042.73	-2.00
1043.15	8.00
1043.57	-27.00
1043.99	-25.00
1044.41	-3.00
1044.83	-14.00
1045.26	-9.00
1045.68	-24.00
1046.10	0.00
1046.52	2.00
1046.94	2.00
1047.36	-3.00
1047.78	1.00
1048.20	-5.00
1048.62	-21.00
1049.04	-29.00
1049.46	-10.00
1049.88	13.00
1050.30	19.00
1050.72	-19.00
1051.14	-19.00
1051.56	12.00
1051.98	1.00
1052.40	-2.00
1052.82	13.00
1053.24	-8.00
1053.66	-17.00
1054.08	13.00
1054.50	-7.00
1054.92	0.00
1055.34	19.00
1055.76	3.00
1056.18	3.00
1056.60	-19.00
1057.02	-9.00
1057.44	4.00
1057.86	36.00
1058.28	10.00
1058.69	-42.00
1059.11	-25.00
1059.53	-7.00
1059.95	-6.00
1060.37	-5.00
1060.79	-24.00
1061.21	-15.00
1061.63	-26.00
1062.05	-23.00
1062.47	14.00
1062.89	36.00
1063.31	-6.00
1063.73	-27.00
1064.15	-18.00
1064.56	-26.00
1064.98	-11.00
1065.40	-4.00
1065.82	3.00
1066.24	8.00
1066.66	-14.00
1067.08	-2.00
1067.50	32.00
1067.92	5.00
1068.34	-22.00
1068.75	13.00
1069.17	5.00
1069.59	-25.00
1070.01	-12.00
1070.43	-4.00
1070.85	13.00
1071.27	25.00
1071.69	-14.00
1072.10	-20.00
1072.52	-4.00
1072.94	-28.00
1073.36	-23.00
1073.78	2.00
1074.20	3.00
1074.61	34.00
1075.03	-3.00
1075.45	-41.00
1075.87	33.00
1076.29	8.00
1076.71	-40.00
1077.12	-20.00
1077.54	1.00
1077.96	-7.00
1078.38	-4.00
1078.80	-3.00
1079.22	-25.00
1079.63	5.00
1080.05	-22.00
1080.47	-11.00
1080.89	26.00
1081.31	17.00
1081.72	1.00
1082.14	-13.00
1082.56	12.00
1082.98	0.00
1083.39	10.00
1083.81	15.00
1084.23	-1.00
1084.65	5.00
1085.07	-35.00
1085.48	-42.00
1085.90	13.00
1086.32	-38.00
1086.74	-4.00
1087.15	-9.00
1087.57	-31.00
1087.99	0.00
1088.41	-35.00
1088.82	-12.00
1089.24	-11.00
1089.66	-5.00
1090.08	-12.00
1090.49	8.00
1090.91	6.00
1091.33	6.00
1091.74	7.00
1092.16	5.00
1092.58	-10.00
1093.00	-10.00
1093.41	18.00
1093.83	7.00
1094.25	22.00
1094.66	-9.00
1095.08	-21.00
1095.50	2.00
1095.91	24.00
1096.33	4.00
1096.75	18.00
1097.17	4.00
1097.58	-32.00
1098.00	-51.00
1098.42	-33.00
